<<PMCA SPECTRUM>>
TAG - live_data
DESCRIPTION - 
GAIN - 3
THRESHOLD - 0
LIVE_MODE - 0
PRESET_TIME - 0
LIVE_TIME - 8994.994673
REAL_TIME - 9252.206000
START_TIME - 06/07/2024 12:04:33
SERIAL_NUMBER - 0
<<CALIBRATION>>
LABEL - Channel
552.31 5.9
607.2 6.49
1299.82 13.95
1651.47 17.75
<<ROI>>
150 250
770 820
850 950
1040 1120
1230 1270
<<DATA>>
0
0
0
0
0
0
0
0
0
0
0
0
0
0
0
0
193719
112213
24244
5389
1956
1458
1398
1444
1426
1489
1505
1546
1624
1759
1756
1879
2080
2272
2728
3513
4668
6262
7624
9159
9754
9781
9408
8597
8264
8087
8085
8053
7706
7145
6028
4927
3794
2783
2211
1755
1489
1426
1396
1302
1347
1322
1377
1307
1340
1300
1348
1329
1309
1241
1284
1180
1161
1190
1205
1190
1128
1100
1123
1087
1094
1127
1118
1052
1073
1026
1088
1031
1008
1041
975
967
989
994
932
1055
956
991
964
969
977
1004
896
905
896
929
913
882
877
896
889
847
818
819
846
867
804
828
837
843
893
891
848
880
832
846
909
894
919
898
917
956
961
968
988
1079
1153
1229
1385
1457
1566
1674
1746
1784
1762
1756
1732
1649
1698
1714
1867
2052
2296
2608
2910
3581
3730
4065
4377
4515
4452
4427
4470
4389
4373
4442
4523
4755
4888
5197
5310
5564
5941
6376
6461
6862
6965
7547
8035
8411
8924
9459
10273
11372
12300
13390
14694
16397
18287
21132
25717
32535
43466
59862
83683
117274
161147
213019
271785
330187
383593
424662
450831
463456
461705
454872
441431
425876
406174
382562
349672
310690
263623
213629
165060
120742
84830
56087
36341
23710
15877
10904
8701
7846
7542
7921
8301
8599
8749
8474
8143
7977
7356
6963
6478
5982
5509
5427
5425
5372
5405
5429
5623
5662
6028
6142
6426
6402
6757
6905
7046
7288
7347
7691
7845
7924
8302
8417
8798
8796
9013
9471
9456
9404
9574
9458
9460
9380
9190
8912
9096
8979
8690
9084
8938
9029
9151
9118
9544
9540
9585
9898
10141
10222
10316
10585
10814
10875
11173
11279
11371
11741
12256
11882
11857
12359
12440
12594
12701
12908
12740
12544
12950
13291
13242
13362
13351
13461
14039
13976
14455
14817
15007
15473
15396
15614
16099
16101
16123
16693
16595
16546
16834
16923
16885
16825
16952
16857
17071
17605
17494
17983
18064
18157
18621
18835
19061
19203
19663
19632
19861
20241
20717
20599
21000
21043
21372
21924
22135
22367
22520
22805
23258
23427
23548
23937
24060
24286
24412
24707
25194
25204
25582
25759
26242
26496
26603
26598
27117
27368
27939
28015
28411
28408
28565
28973
29163
29224
30120
30038
30125
30421
30994
30786
31218
31787
31729
32118
32416
32368
32596
32773
33315
33679
33712
34096
34329
34592
34565
35112
35090
35162
35843
35778
36312
36409
36842
37103
37353
37340
37795
38161
38029
38675
38855
38960
39731
39932
40211
40813
41460
42011
42105
42745
42493
42774
42771
43061
43327
43256
42812
42921
43002
42958
42855
43201
43448
43153
43881
44056
44153
43963
44589
45036
44572
44940
45477
44937
45735
46000
46322
46190
46179
46655
46561
46610
47194
47314
48017
47638
47667
48175
48244
48441
48275
48580
48964
48656
48629
49502
49392
49362
49436
49534
49730
49736
49772
50223
50418
50567
50598
50631
50391
51158
51433
51055
51546
51866
51771
51868
51439
52113
52342
52186
52586
52261
52693
52932
52618
53162
53484
53533
53265
53460
54139
54092
53789
54463
54229
54498
54487
54312
55158
55173
54908
54531
54992
54950
55261
55229
55785
55220
55798
55569
55691
55340
56310
56258
56334
56400
56436
56395
56575
56803
56596
56367
56706
57011
56614
57112
56955
57141
57648
57227
57458
56938
57609
57586
57843
57847
57817
57547
58106
57923
58343
58326
58213
58187
58389
57848
58091
58211
58219
58199
57903
58537
58095
58916
58619
58602
58872
58156
58624
58326
58542
58917
58675
59032
58936
58708
58660
58852
58509
59386
58784
59240
59142
59628
58985
59774
59824
60158
59616
60832
60577
61181
61881
61704
62089
62348
61898
62403
62253
61472
61825
60830
61393
60718
60609
60188
60559
59841
59169
59802
59804
59376
59461
59075
59221
59622
59513
59527
59202
59303
59547
59323
59501
58941
59642
59463
59535
59243
59313
59369
59509
59609
59239
59427
59527
59439
59325
59555
59508
58784
59312
59536
59106
59500
59027
58694
59645
59503
59547
59606
59410
59020
59436
59571
59328
59672
59131
59516
59073
59253
59412
59261
59154
59119
59063
58138
58830
58945
58406
58083
58421
58461
58160
58035
57740
58405
58121
57761
58193
57895
57892
57873
58212
57401
57900
58112
57718
58026
57476
58023
57963
57634
58704
58054
58050
58199
57533
57750
58130
57912
57522
57475
57422
57041
57452
57576
57369
57214
57146
56817
56910
57047
57128
56703
56573
56418
56539
56641
56401
56690
56750
56750
56101
56568
56446
56419
56524
56059
56156
56358
56029
56591
56520
56471
56023
55889
56285
56285
56393
56135
56030
56398
56211
56181
55940
55800
56086
55846
55564
55754
56011
56022
55683
55702
55019
55238
55093
55413
54845
54652
54703
54547
54728
55141
54597
54917
54755
54904
54536
54446
54892
54683
54564
54683
54651
55366
55343
56489
57188
57859
59062
60332
61357
63188
64792
66824
67976
69707
70963
71178
71609
71964
71640
70782
69529
68627
66925
64985
62908
61143
60007
58435
57240
56075
54875
54743
53494
53879
53183
52949
52235
52431
52313
51918
51706
52088
52347
51889
52061
51758
51963
51529
51448
51540
51321
51200
50903
50997
51262
50691
50821
50649
50780
50571
51009
50581
50312
50174
49969
50311
50059
50357
50074
49868
49878
49776
50006
49643
49826
49926
49620
49667
49760
49887
49513
49674
49244
49583
49581
49626
49042
49346
49284
48998
48983
48863
48934
48567
48733
49151
48668
49145
49187
49164
49538
49623
49517
50197
50440
51543
52266
53493
55690
58597
62010
66510
72836
80233
89705
101654
115893
133656
152780
175642
202294
231313
261302
291095
320936
350989
375458
397078
412940
421260
423515
416322
403727
383003
357940
329213
297893
264231
233112
201541
173030
147579
125732
108026
93016
80536
71482
63959
58534
54910
51764
49903
47815
47466
46641
45987
45435
45244
44705
44195
44744
44183
44034
44350
44141
43900
43568
43733
43547
43420
44090
43589
43750
43587
44061
43931
43964
43834
44197
44464
44585
44598
44551
44912
44822
44739
44629
44641
44472
44180
44138
43534
43333
43002
42814
42229
42088
41356
41599
41247
41185
41063
40765
40829
40432
40456
40395
40295
40459
39858
40202
39997
39692
39892
40106
39410
39836
39646
39611
39629
39343
39305
39380
39254
39203
38836
38592
38876
38810
38663
38606
38799
38550
38885
38656
38468
38325
38359
38285
38505
38085
38235
37765
37859
38182
37891
37978
37978
38763
38471
38260
38437
38944
39810
39581
40783
41257
42229
42530
43597
44858
45626
46561
46933
47854
48020
48859
48760
48946
49047
49348
49278
49967
50804
51372
53020
55359
58469
62883
67651
73604
79781
88019
96364
105221
112903
122612
129088
136420
143385
147811
151510
153889
155216
155332
154417
153603
152165
149927
147858
144760
141831
139492
135367
131082
126736
121412
114299
108805
101272
94822
87649
80492
73641
67518
61822
56872
51733
48543
45497
42984
40649
39347
37917
37182
36396
36338
36101
36028
35772
35456
35431
35329
34857
34747
34096
33854
33408
32727
31993
31374
30598
29924
29223
28641
27910
27324
27054
26671
26289
25859
25526
25240
25072
25120
25100
24831
24752
24745
24205
24310
24255
23992
24132
24009
24097
23890
23940
23830
23960
23724
23587
23559
23653
23446
23524
23436
23598
23396
23623
23234
23377
23294
23538
22976
23100
23166
22935
22992
22737
22709
22750
22571
22609
22505
22669
22328
22507
22242
22646
22061
22136
22331
22094
22328
22220
22156
21903
21964
22108
22043
21849
21976
21850
21648
21686
21690
21657
21659
21937
21895
21691
21773
21459
21568
21677
21614
21404
21611
21448
21516
21497
21162
21327
21353
21451
21016
21164
21006
20844
20986
20815
20704
20801
20499
20605
20828
20664
20575
20644
20520
20624
21079
21230
21815
21863
22434
23219
24189
25314
25934
26900
27919
29566
30594
31826
32500
33565
34342
34563
35040
34698
34306
33473
33306
32383
31372
30105
28918
27591
26461
25553
24446
23626
22748
21720
21150
21108
20542
20305
20097
20012
19904
20190
20307
20464
20781
20547
20547
20829
20860
20894
21053
20945
21021
20848
20790
20475
20219
19910
19408
19151
18818
18631
18223
17783
17525
17142
17215
16722
16541
16401
16059
15857
15742
15635
15587
15447
15356
15407
15235
15258
15225
15063
14865
15073
14791
14841
14658
14509
14754
14677
14637
14854
14744
14867
14732
14651
14791
14575
14846
14352
14539
14788
14429
14540
14296
14205
14154
14129
13814
13878
13989
13883
13584
13614
13645
13509
13165
13229
13261
13078
12982
12932
12833
12636
12756
12663
12548
12859
12789
12711
12623
12751
12523
12517
12614
12379
12456
12265
12506
12212
12311
12205
12102
12149
12120
12122
12177
12022
11991
12024
11811
11714
11828
11851
11805
11661
11573
11658
11712
11433
11621
11328
11420
11583
11388
11402
11454
11220
11331
11268
11324
11141
11267
11324
11141
11075
10900
10867
10989
10889
10809
10986
10748
10629
10821
10721
10655
10486
10638
10585
10487
10599
10421
10289
10476
10555
10311
10429
10065
10128
10087
10251
10082
10077
10189
10179
10058
10118
9983
10047
10007
9652
9772
9872
9737
9637
9677
9586
9654
9796
9530
9686
9542
9301
9508
9369
9448
9366
9470
9201
9217
9132
9097
9017
9269
9345
9189
9074
9023
9096
8950
8907
9095
8939
8895
8878
8660
8822
8663
8785
8872
8704
8794
8510
8469
8573
8573
8447
8397
8375
8413
8378
8413
8255
8270
8206
8168
8122
8078
8113
8137
7991
8107
7825
7975
7981
7759
7922
7956
7696
7862
7790
7626
7704
7634
7748
7569
7510
7341
7372
7509
7428
7324
7379
7309
7188
7346
7342
7166
7256
7239
7165
7177
7115
6953
7098
7017
6996
6858
6893
6932
6825
6774
6828
6858
6731
6851
6702
6675
6608
6606
6651
6537
6556
6638
6445
6571
6385
6484
6305
6364
6273
6241
6297
6466
6291
6232
6070
6053
5994
5967
5997
6076
6057
5961
5978
5886
5810
5762
5898
5837
5782
5783
5722
5779
5863
5697
5568
5633
5534
5595
5434
5544
5511
5445
5380
5378
5408
5357
5353
5329
5378
5314
5244
5061
5148
5079
5026
5093
4992
5116
5161
5028
5107
4886
4934
4841
4899
4842
4730
4904
4746
4742
4695
4656
4756
4724
4586
4643
4616
4636
4507
4551
4425
4559
4500
4263
4405
4411
4382
4275
4239
4276
4290
4315
4182
4166
4120
4105
4044
4022
4083
3949
4056
4017
3972
3902
3870
3771
3844
3808
3763
3780
3745
3720
3710
3721
3654
3593
3645
3587
3662
3621
3518
3642
3445
3541
3466
3535
3480
3355
3264
3304
3285
3396
3287
3277
3192
3192
3152
3208
3134
3066
3122
3079
3101
3188
2979
2952
2898
3003
2935
2913
2908
2742
2787
2791
2899
2717
2716
2702
2667
2780
2715
2647
2671
2605
2635
2743
2488
2513
2522
2451
2491
2411
2397
2409
2400
2378
2275
2341
2309
2236
2311
2255
2269
2259
2152
2145
2129
2158
1965
2049
2071
2068
2026
2010
2046
2033
1932
2000
1878
1865
1904
1788
1836
1847
1779
1737
1768
1788
1740
1717
1632
1685
1669
1709
1564
1556
1523
1533
1624
1467
1491
1488
1406
1434
1414
1448
1373
1367
1328
1280
1294
1241
1328
1290
1256
1256
1230
1214
1135
1156
1147
1051
1073
1087
1064
1053
1006
1015
986
1036
893
918
881
917
873
856
813
839
804
804
782
724
755
680
728
670
650
619
593
584
571
552
552
543
507
492
491
471
448
380
421
366
390
340
349
305
289
289
243
265
252
229
219
197
171
187
128
138
125
131
110
85
85
62
66
58
57
55
49
39
40
23
39
24
28
26
25
32
21
24
26
25
20
19
25
17
23
22
20
19
16
20
21
21
22
29
27
29
20
20
22
26
13
21
11
19
23
16
21
25
20
17
22
11
19
23
20
12
29
26
20
18
25
18
8
19
19
17
19
21
18
21
29
19
17
23
25
22
14
15
20
19
21
22
24
13
22
18
22
13
19
23
27
22
25
14
15
33
21
25
41
29
38
27
22
28
19
25
37
43
35
30
23
21
24
29
24
32
30
26
34
22
36
27
29
31
20
38
31
24
21
25
25
19
31
11
17
22
27
16
27
25
18
10
14
19
22
13
16
11
22
19
20
23
22
10
16
22
20
20
15
10
11
13
15
11
21
12
22
17
16
11
15
19
18
14
13
17
20
20
13
18
17
13
10
15
15
19
14
14
9
14
19
13
16
<<END>>
<<DP5 CONFIGURATION>>
RESC=?;    Reset Configuration
CLCK=80;    20MHz/80MHz
TPEA=2.000;    Peaking Time
GAIF=1.0750;    Fine Gain
GAIN=60.023;    Total Gain (Analog * Fine)
RESL=102;    Detector Reset Lockout
TFLA=0.200;    Flat Top
TPFA=50;    Fast Channel Peaking Time
PURE=ON;    PUR Interval On/Off
RTDE=OFF;    RTD On/Off
MCAS=NORM;    MCA Source
MCAC=2048;    MCA/MCS Channels
SOFF=OFF;    Set Spectrum Offset
AINP=POS;    Analog Input Pos/Neg
INOF=DEF;    Input Offset
GAIA=19;    Analog Gain Index
CUSP=0;    Non-Trapezoidal Shaping
PDMD=NORM;    Peak Detect Mode (Min/Max)
THSL=0.781;    Slow Threshold
TLLD=OFF;    LLD Threshold
THFA=40.00;    Fast Threshold
DACO=SHAPED;    DAC Output
DACF=50;    DAC Offset
RTDS=0;    RTD Sensitivity
RTDT=0.00;    RTD Threshold
BLRM=1;    BLR Mode
BLRD=3;    BLR Down Correction
BLRU=1;    BLR Up Correction
AUO1=SCA8;    AUX_OUT Selection
PRET=OFF;    Preset Time
PRER=OFF;    Preset Real Time
PREC=OFF;    Preset Counts
PRCL=1;    Preset Counts Low Threshold
PRCH=8191;    Preset Counts High Threshold
HVSE=-130;    HV Set
TECS=225;    TEC Set
PAPZ=OFF;    Pole-Zero
PAPS=8.5;    Preamp 8.5/5 (N/A)
SCOE=FA;    Scope Trigger Edge
SCOT=12;    Scope Trigger Position
SCOG=1;    Digital Scope Gain
MCSL=1;    MCS Low Threshold
MCSH=8191;    MCS High Threshold
MCST=0.01;    MCS Timebase
AUO2=ICR;    AUX_OUT2 Selection
TPMO=OFF;    Test Pulser On/Off
GPED=RI;    G.P. Counter Edge
GPIN=AUX1;    G.P. Counter Input
GPME=ON;    G.P. Counter Uses MCA_EN?
GPGA=ON;    G.P. Counter Uses GATE?
GPMC=ON;    G.P. Counter Cleared With MCA Counters?
MCAE=OFF;    MCA/MCS Enable
VOLU=OFF;    Speaker On/Off
CON1=DAC;    Connector 1
CON2=AUXOUT2;    Connector 2
<<DP5 CONFIGURATION END>>
<<DPP STATUS>>
Device Type: PX5
Serial Number: 2524
Firmware: 6.08  Build:  6
FPGA: 6.11
Fast Count: 66888311
Slow Count: 65028866
GP Count: 0
Accumulation Time: 9252.206000
Real Time: 9263.658000
Dead Time: 2.78%
HV Volt: -130V
TEC Temp: 252K
Board Temp: 29C
<<DPP STATUS END>>
